File: SCM.csv
 Cement(kg/m3), Water(kg/m3),Coarse aggregate(kg/m3),Fine aggregate(kg/m3), FA (kg/m3),SF (kg/m3),GGBFS (kg/m3),SP (kg/m3),Cylinder compressive strength (MPa),Splitting tensile strength (MPa),Flexural strength (MPa),Elastic modulus (GPa),Chloride permeability (Coulomb) 28d,Chloride permeability (Coulomb) 90d,Chloride permeability (Coulomb) 180d,Drying shrinkage (??) 7d,Drying shrinkage (??) 28d,Drying shrinkage (??) 90d,Drying shrinkage (??)120d,Creep (??) 28d,Creep (??) 90d,Creep (??) 150d,Abrasion (mm) 28 d
300.0,150.0,1097.0,673.0,200.0,0.0,0.0,4.5,52.7,2.52,-1.0,-1.0,-1.0,-1.0,-1.0,-1.0,-1.0,-1.0,-1.0,-1.0,-1.0,-1.0,-1.0
83.0,168.0,820.0,932.0,166.0,0.0,166.0,1.69,41.4,-1.0,-1.0,41.5,-1.0,-1.0,-1.0,-1.0,-1.0,-1.0,-1.0,-1.0,-1.0,-1.0,-1.0
290.0,163.0,1048.0,670.0,72.5,0.0,0.0,0.0,36.0,-1.0,-1.0,-1.0,-1.0,-1.0,-1.0,-1.0,-1.0,-1.0,-1.0,-1.0,-1.0,-1.0,-1.0
253.75,163.0,1048.0,670.0,90.62,18.12,0.0,0.0,31.0,-1.0,-1.0,-1.0,-1.0,-1.0,-1.0,-1.0,-1.0,-1.0,-1.0,-1.0,-1.0,-1.0,-1.0
209.5,200.0,761.0,858.0,163.5,0.0,81.5,4.31,35.8,-1.0,-1.0,-1.0,4204.0,660.0,-1.0,-1.0,-1.0,-1.0,-1.0,-1.0,-1.0,-1.0,-1.0
449.0,142.0,1155.0,622.0,0.0,50.0,0.0,5.0,68.0,-1.0,-1.0,-1.0,-1.0,-1.0,-1.0,-1.0,-1.0,-1.0,-1.0,-1.0,-1.0,-1.0,-1.0
416.0,135.2,1146.0,667.0,0.0,104.0,0.0,18.2,79.9,6.51,11.1,-1.0,-1.0,-1.0,-1.0,-1.0,-1.0,-1.0,-1.0,-1.0,-1.0,-1.0,-1.0
456.0,201.6,1058.0,616.0,0.0,24.0,0.0,16.8,42.67,4.4,6.8,-1.0,-1.0,-1.0,-1.0,-1.0,-1.0,-1.0,-1.0,-1.0,-1.0,-1.0,-1.0
213.5,159.2,1043.6,771.9,124.8,0.0,0.0,11.7,44.61,-1.0,-1.0,-1.0,-1.0,-1.0,-1.0,-1.0,-1.0,-1.0,-1.0,-1.0,-1.0,-1.0,-1.0
276.4,217.4,897.7,712.9,124.8,0.0,0.0,11.0,9.55,-1.0,-1.0,-1.0,-1.0,-1.0,-1.0,-1.0,-1.0,-1.0,-1.0,-1.0,-1.0,-1.0,-1.0
375.0,180.0,876.0,860.0,100.0,25.0,0.0,1.0,55.42,-1.0,-1.0,-1.0,-1.0,-1.0,-1.0,-1.0,-1.0,-1.0,-1.0,-1.0,-1.0,-1.0,-1.0
397.0,167.0,967.0,633.0,158.0,0.0,17.2,20.8,55.65,-1.0,-1.0,-1.0,-1.0,-1.0,-1.0,-1.0,-1.0,-1.0,-1.0,-1.0,-1.0,-1.0,-1.0
144.0,192.0,814.0,805.0,133.0,0.0,170.0,8.0,29.87,-1.0,-1.0,-1.0,-1.0,-1.0,-1.0,-1.0,-1.0,-1.0,-1.0,-1.0,-1.0,-1.0,-1.0
168.0,121.8,1058.7,780.1,163.8,0.0,42.1,5.7,24.24,-1.0,-1.0,-1.0,-1.0,-1.0,-1.0,-1.0,-1.0,-1.0,-1.0,-1.0,-1.0,-1.0,-1.0
144.0,178.0,941.0,774.0,106.0,0.0,136.0,7.0,26.14,-1.0,-1.0,-1.0,-1.0,-1.0,-1.0,-1.0,-1.0,-1.0,-1.0,-1.0,-1.0,-1.0,-1.0
168.9,158.3,1080.8,796.2,124.3,0.0,42.2,10.8,31.12,-1.0,-1.0,-1.0,-1.0,-1.0,-1.0,-1.0,-1.0,-1.0,-1.0,-1.0,-1.0,-1.0,-1.0
314.0,179.0,869.0,690.0,113.0,0.0,145.0,8.0,46.23,-1.0,-1.0,-1.0,-1.0,-1.0,-1.0,-1.0,-1.0,-1.0,-1.0,-1.0,-1.0,-1.0,-1.0
140.0,200.0,916.0,753.0,103.0,0.0,133.0,7.0,36.44,-1.0,-1.0,-1.0,-1.0,-1.0,-1.0,-1.0,-1.0,-1.0,-1.0,-1.0,-1.0,-1.0,-1.0
496.0,235.6,720.0,780.0,124.0,0.0,0.0,4.0,46.22,-1.0,-1.0,-1.0,-1.0,-1.0,-1.0,-1.0,-1.0,-1.0,-1.0,-1.0,-1.0,-1.0,-1.0
300.0,180.0,595.0,958.0,240.0,60.0,0.0,3.6,72.42,-1.0,-1.0,-1.0,500.0,-1.0,-1.0,-1.0,-1.0,-1.0,-1.0,-1.0,-1.0,-1.0,-1.0
405.0,180.0,640.0,1147.0,0.0,45.0,0.0,9.45,67.15,-1.0,-1.0,-1.0,750.0,-1.0,-1.0,-1.0,-1.0,-1.0,-1.0,-1.0,-1.0,-1.0,-1.0
440.0,176.0,917.0,714.0,110.0,0.0,0.0,7.43,59.33,-1.0,-1.0,-1.0,-1.0,-1.0,-1.0,205.0,360.0,-1.0,-1.0,-1.0,-1.0,-1.0,-1.0
440.0,176.0,924.0,720.0,41.25,27.5,41.25,8.0,66.81,-1.0,-1.0,-1.0,-1.0,-1.0,-1.0,275.0,390.0,-1.0,-1.0,-1.0,-1.0,-1.0,-1.0
270.0,198.0,852.0,811.0,90.0,0.0,90.0,3.2,45.56,-1.0,-1.0,-1.0,-1.0,-1.0,-1.0,-1.0,-1.0,-1.0,-1.0,-1.0,-1.0,-1.0,-1.0
270.0,198.0,857.0,816.0,0.0,45.0,135.0,4.6,68.2,-1.0,-1.0,-1.0,-1.0,408.0,-1.0,199.0,-1.0,-1.0,-1.0,-1.0,-1.0,-1.0,-1.0
420.0,168.0,1082.0,663.0,0.0,21.0,0.0,4.2,61.18,-1.0,-1.0,31.759,-1.0,-1.0,-1.0,-1.0,-1.0,-1.0,-1.0,-1.0,-1.0,-1.0,-1.0
231.0,119.0,1047.0,852.0,156.0,0.0,0.0,3.2,55.3,-1.0,-1.0,-1.0,-1.0,-1.0,-1.0,-1.0,-1.0,-1.0,-1.0,-1.0,-1.0,-1.0,1.18
120.0,160.0,1200.0,600.0,280.0,0.0,0.0,0.0,19.5,2.04,3.43,-1.0,-1.0,-1.0,-1.0,-1.0,-1.0,-1.0,-1.0,-1.0,-1.0,-1.0,-1.0
423.0,159.8,1056.0,704.0,47.0,0.0,0.0,0.0,46.32,-1.0,-1.0,-1.0,-1.0,-1.0,-1.0,240.0,350.0,449.0,467.0,-1.0,-1.0,-1.0,-1.0
347.0,140.0,1053.0,868.0,0.0,23.0,0.0,8.14,59.0,-1.0,-1.0,-1.0,-1.0,-1.0,-1.0,-1.0,-1.0,-1.0,-1.0,-1.0,-1.0,-1.0,-1.0
398.0,204.0,785.0,908.0,77.0,39.0,0.0,10.28,35.7,4.0,6.0,28.0,678.0,-1.0,-1.0,-1.0,-1.0,-1.0,-1.0,-1.0,-1.0,-1.0,-1.0
635.0,247.0,565.0,847.0,0.0,71.0,0.0,2.54,62.22,-1.0,10.0,-1.0,-1.0,-1.0,-1.0,400.0,480.0,526.0,-1.0,-1.0,-1.0,-1.0,-1.0
367.5,186.2,1078.0,628.0,122.5,0.0,0.0,14.7,29.72,-1.0,5.2,-1.0,-1.0,-1.0,-1.0,-1.0,-1.0,-1.0,-1.0,-1.0,-1.0,-1.0,-1.0
300.0,194.0,825.0,761.0,158.0,0.0,0.0,4.3,25.75,1.45,2.89,-1.0,-1.0,-1.0,-1.0,-1.0,-1.0,-1.0,-1.0,-1.0,-1.0,-1.0,-1.0
450.0,210.0,706.3,898.6,0.0,50.0,0.0,1.7,60.57,-1.0,7.07,-1.0,-1.0,-1.0,-1.0,-1.0,-1.0,-1.0,-1.0,-1.0,-1.0,-1.0,-1.0
297.5,104.125,1035.0,740.0,0.0,52.5,0.0,6.3,53.77,-1.0,-1.0,-1.0,-1.0,-1.0,-1.0,-1.0,-1.0,-1.0,-1.0,-1.0,-1.0,-1.0,-1.0
350.0,153.0,966.0,706.0,100.0,0.0,0.0,9.5,48.96,-1.0,-1.0,37.0,-1.0,-1.0,-1.0,-1.0,-1.0,-1.0,-1.0,-1.0,-1.0,-1.0,-1.0
200.0,90.0,1014.0,774.0,0.0,0.0,200.0,1.4,57.8,-1.0,-1.0,-1.0,1049.0,-1.0,-1.0,-1.0,-1.0,-1.0,-1.0,-1.0,-1.0,-1.0,-1.0
474.3,158.0,1029.0,686.0,0.0,52.7,0.0,10.54,76.67,-1.0,-1.0,-1.0,-1.0,-1.0,-1.0,-1.0,-1.0,-1.0,-1.0,-1.0,-1.0,-1.0,-1.0
219.96,160.0,1270.0,605.0,169.2,33.84,169.2,3.6,40.596,3.19,4.8,-1.0,-1.0,-1.0,-1.0,-1.0,-1.0,-1.0,-1.0,-1.0,-1.0,-1.0,-1.0
325.5,123.69,868.0,868.0,0.0,31.5,63.0,2.016,57.8,-1.0,-1.0,-1.0,2285.0,800.0,800.0,-1.0,-1.0,-1.0,-1.0,-1.0,-1.0,-1.0,-1.0
320.0,152.0,1097.0,731.2,80.0,0.0,0.0,0.0,36.55,5.35,8.35,-1.0,-1.0,-1.0,-1.0,-1.0,-1.0,-1.0,-1.0,-1.0,-1.0,-1.0,-1.0
489.38,185.45,774.62,861.15,15.4542,10.3028,0.0,11.333,51.66,-1.0,-1.0,-1.0,-1.0,-1.0,-1.0,-1.0,-1.0,-1.0,-1.0,-1.0,-1.0,-1.0,-1.0
391.51,185.45,727.9,809.22,113.3308,10.3028,0.0,11.3332,54.19,-1.0,-1.0,-1.0,-1.0,-1.0,-1.0,-1.0,-1.0,-1.0,-1.0,-1.0,-1.0,-1.0,-1.0
306.51,185.45,675.71,751.2,198.3289,10.3028,0.0,11.3331,51.41,-1.0,-1.0,-1.0,-1.0,-1.0,-1.0,-1.0,-1.0,-1.0,-1.0,-1.0,-1.0,-1.0,-1.0
248.0,226.24,806.0,853.0,248.0,0.0,0.0,5.0,22.81,-1.0,-1.0,27.89,-1.0,-1.0,-1.0,-1.0,340.0,475.0,495.0,277.64,-1.0,-1.0,-1.0
464.4,158.0,1151.0,647.0,0.0,29.6,0.0,4.94,54.99,5.76,-1.0,-1.0,-1.0,-1.0,-1.0,-1.0,-1.0,-1.0,-1.0,-1.0,-1.0,-1.0,-1.0
166.25,190.0,730.1,946.8,47.5,23.75,237.5,1.425,35.0,-1.0,-1.0,-1.0,-1.0,-1.0,-1.0,-1.0,-1.0,-1.0,-1.0,-1.0,-1.0,-1.0,-1.0
225.625,190.0,752.5,937.1,47.5,11.875,190.0,1.1875,30.89,3.18,6.89,-1.0,255.0,-1.0,-1.0,-1.0,-1.0,-1.0,-1.0,-1.0,-1.0,-1.0,-1.0
138.0,200.7,1048.0,660.0,92.0,46.0,184.0,1.84,42.2,3.05,4.78,29.0,-1.0,-1.0,-1.0,-1.0,-1.0,-1.0,-1.0,-1.0,-1.0,-1.0,-1.0
267.0,186.9,1307.0,637.0,178.0,0.0,0.0,1.11,34.85,3.3,4.5,33.75,-1.0,-1.0,-1.0,-1.0,-1.0,-1.0,-1.0,-1.0,-1.0,-1.0,-1.0
94.8,168.0,820.0,807.0,379.2,0.0,0.0,1.69,32.0,-1.0,-1.0,-1.0,-1.0,-1.0,-1.0,-1.0,-1.0,-1.0,-1.0,-1.0,-1.0,-1.0,-1.0
357.0,178.5,915.0,865.0,0.0,0.0,153.0,4.5,46.5,3.85,-1.0,29.8,-1.0,-1.0,-1.0,-1.0,-1.0,-1.0,-1.0,-1.0,-1.0,-1.0,-1.0
503.0,151.0,1075.0,510.0,0.0,89.0,148.0,8.88,117.64,7.94,12.15,-1.0,325.0,-1.0,-1.0,-1.0,-1.0,-1.0,-1.0,-1.0,-1.0,-1.0,-1.0
484.2,185.5,794.5,883.2,0.0,30.906,0.0,11.3323,60.9025,4.99,-1.0,-1.0,1030.0,-1.0,-1.0,-1.0,-1.0,-1.0,-1.0,-1.0,-1.0,-1.0,-1.0
399.2,185.5,742.3,825.2,84.9915,30.906,0.0,11.3321,55.981,-1.0,-1.0,-1.0,-1.0,-1.0,-1.0,-1.0,-1.0,-1.0,-1.0,-1.0,-1.0,-1.0,-1.0
314.2,185.5,690.1,767.2,169.983,30.906,0.0,11.332,56.0575,-1.0,-1.0,-1.0,-1.0,-1.0,-1.0,-1.0,-1.0,-1.0,-1.0,-1.0,-1.0,-1.0,-1.0
200.9,185.5,620.5,689.8,283.305,30.906,0.0,11.3324,47.192,-1.0,-1.0,-1.0,-1.0,-1.0,-1.0,-1.0,-1.0,-1.0,-1.0,-1.0,-1.0,-1.0,-1.0
300.7,271.7,813.0,631.0,0.0,46.3,116.0,0.0,31.535,-1.0,-1.0,-1.0,-1.0,-1.0,-1.0,-1.0,-1.0,-1.0,-1.0,-1.0,-1.0,-1.0,-1.0
348.75,200.0,737.0,937.5,69.75,47.7,0.0,3.72,39.1,3.97,4.9,-1.0,-1.0,-1.0,-1.0,-1.0,-1.0,-1.0,-1.0,-1.0,-1.0,-1.0,-1.0
260.0,214.9,832.0,785.0,104.0,52.0,104.0,6.86,42.024,-1.0,-1.0,-1.0,-1.0,-1.0,-1.0,-1.0,-1.0,-1.0,-1.0,-1.0,-1.0,-1.0,-1.0
269.45,148.99,1268.0,634.0,23.78,23.78,0.0,0.0,28.9,3.75,-1.0,-1.0,-1.0,-1.0,-1.0,-1.0,-1.0,-1.0,-1.0,-1.0,-1.0,-1.0,-1.0
324.0,162.0,1027.0,750.0,81.0,0.0,0.0,0.0,44.6,3.5,-1.0,26.3,-1.0,-1.0,-1.0,-1.0,-1.0,-1.0,-1.0,-1.0,-1.0,-1.0,-1.0
137.0,155.0,1083.0,670.0,0.0,28.0,296.0,0.0,72.5,4.9,-1.0,30.7,-1.0,-1.0,-1.0,-1.0,-1.0,-1.0,-1.0,-1.0,-1.0,-1.0,-1.0
300.0,200.0,860.0,845.0,200.0,0.0,0.0,9.0,22.1,1.7,-1.0,13.0,1240.0,-1.0,-1.0,-1.0,-1.0,-1.0,-1.0,-1.0,-1.0,-1.0,-1.0
340.0,188.0,800.0,825.0,0.0,0.0,135.0,6.1275,36.55,-1.0,-1.0,-1.0,-1.0,-1.0,-1.0,-1.0,-1.0,-1.0,-1.0,-1.0,-1.0,-1.0,-1.0
315.0,189.0,651.7,981.2,0.0,45.0,90.0,1.8,36.0,3.75,4.25,33.2,397.0,-1.0,-1.0,-1.0,-1.0,-1.0,-1.0,-1.0,-1.0,-1.0,-1.0
583.0,191.232,1235.0,523.0,0.0,14.6,0.0,4.3,64.6,-1.0,-1.0,-1.0,-1.0,-1.0,-1.0,-1.0,-1.0,-1.0,-1.0,-1.0,-1.0,-1.0,-1.0
466.4,214.56,1235.0,523.0,116.6,29.2,58.3,4.27,58.65,-1.0,-1.0,-1.0,-1.0,-1.0,-1.0,-1.0,-1.0,-1.0,-1.0,-1.0,-1.0,-1.0,-1.0
408.1,205.216,1235.0,523.0,58.3,58.3,116.6,5.26,58.65,-1.0,-1.0,-1.0,-1.0,-1.0,-1.0,-1.0,-1.0,-1.0,-1.0,-1.0,-1.0,-1.0,-1.0
440.0,176.0,931.0,725.0,0.0,0.0,110.0,10.43,63.835,-1.0,-1.0,-1.0,-1.0,-1.0,-1.0,-1.0,-1.0,-1.0,-1.0,-1.0,-1.0,-1.0,-1.0
125.0,172.0,1100.0,880.0,62.5,0.0,62.5,5.0,40.1,-1.0,-1.0,-1.0,-1.0,-1.0,-1.0,-1.0,-1.0,-1.0,-1.0,-1.0,-1.0,-1.0,-1.0
270.0,171.0,808.0,1204.0,0.0,0.0,180.0,0.0,70.0,-1.0,-1.0,-1.0,-1.0,-1.0,-1.0,-1.0,-1.0,-1.0,-1.0,-1.0,-1.0,-1.0,-1.0
245.0,250.0,924.0,609.0,0.0,0.0,245.0,0.0,35.955,-1.0,-1.0,-1.0,-1.0,-1.0,-1.0,-1.0,-1.0,-1.0,-1.0,-1.0,-1.0,-1.0,-1.0
219.06,197.1,1139.1,657.19,0.0,46.58,199.15,0.0,28.8,3.43,6.28,-1.0,-1.0,-1.0,-1.0,-1.0,-1.0,-1.0,-1.0,-1.0,-1.0,-1.0,-1.0
286.0,288.96,678.0,984.0,78.0,0.0,156.0,4.16,35.87,4.0,-1.0,-1.0,-1.0,-1.0,-1.0,-1.0,-1.0,-1.0,-1.0,-1.0,-1.0,-1.0,-1.0
435.0,154.0,1098.0,772.0,0.0,43.5,0.0,4.31,44.03,-1.0,-1.0,-1.0,-1.0,-1.0,-1.0,-1.0,-1.0,-1.0,-1.0,-1.0,-1.0,-1.0,-1.0
405.0,126.0,1125.0,675.0,0.0,45.0,0.0,14.0,96.815,-1.0,-1.0,47.06,-1.0,-1.0,-1.0,-1.0,-1.0,-1.0,-1.0,-1.0,-1.0,-1.0,-1.0
135.0,135.0,875.0,875.0,0.0,0.0,315.0,1.0,66.85,-1.0,-1.0,-1.0,-1.0,-1.0,-1.0,-1.0,-1.0,-1.0,-1.0,-1.0,-1.0,-1.0,-1.0
332.4,214.0,1212.0,520.0,0.0,71.3,71.3,0.0,39.491,-1.0,-1.0,-1.0,-1.0,-1.0,-1.0,-1.0,-1.0,-1.0,-1.0,-1.0,-1.0,-1.0,-1.0
385.0,137.5,816.1,816.1,82.5,0.0,82.5,20.6,72.42,-1.0,-1.0,-1.0,-1.0,-1.0,-1.0,-1.0,-1.0,-1.0,-1.0,-1.0,-1.0,-1.0,-1.0
243.0,135.8,974.0,1087.0,0.0,58.0,184.0,14.55,61.2,-1.0,10.2,-1.0,-1.0,-1.0,-1.0,-1.0,-1.0,-1.0,-1.0,-1.0,-1.0,-1.0,-1.0